File: DichroicRatioFromUVData-master 2/DataParse2/12-13.csv
pdms,,pdms-0,,pdms-90,,30-10,,30-10-0,,30-10-90,,30-10-90-2,,30-10-0-2,,
Wavelength (nm),Abs,Wavelength (nm),Abs,Wavelength (nm),Abs,Wavelength (nm),Abs,Wavelength (nm),Abs,Wavelength (nm),Abs,Wavelength (nm),Abs,Wavelength (nm),Abs,
1100,0.00407816,1100,0.250715,1100,0.52191,1100,0.035761,1100,0.277045,1100,0.555055,1100,0.552606,1100,0.276868,
1091,0.00465595,1091,0.259931,1091,0.508624,1091,0.0378315,1091,0.287479,1091,0.543038,1091,0.539545,1091,0.286023,
1082,0.00351816,1082,0.265031,1082,0.497678,1082,0.0380868,1082,0.293626,1082,0.533238,1082,0.529452,1082,0.29157,
1073,0.00381749,1073,0.269875,1073,0.492023,1073,0.0391867,1073,0.299241,1073,0.528513,1073,0.525019,1073,0.297416,
1064,0.00276611,1064,0.272914,1064,0.48414,1064,0.038522,1064,0.302561,1064,0.521349,1064,0.519212,1064,0.302406,
1055,-0.00603553,1055,0.268117,1055,0.468807,1055,0.0310956,1055,0.299321,1055,0.507337,1055,0.506208,1055,0.299779,
1046,-0.0123609,1046,0.266537,1046,0.456474,1046,0.0283114,1046,0.300642,1046,0.49745,1046,0.494508,1046,0.298172,
1037,0.00334925,1037,0.287568,1037,0.466505,1037,0.0443764,1037,0.321649,1037,0.509119,1037,0.505757,1037,0.319854,
1028,-0.0115466,1028,0.276702,1028,0.445012,1028,0.0319113,1028,0.313388,1028,0.48963,1028,0.487601,1028,0.312067,
1019,0.00427073,1019,0.29828,1019,0.454666,1019,0.0492706,1019,0.335757,1019,0.501766,1019,0.499149,1019,0.334647,
1010,-0.00612656,1010,0.293005,1010,0.437835,1010,0.0435686,1010,0.334519,1010,0.488769,1010,0.484686,1010,0.331019,
1001,-0.0118584,1001,0.292358,1001,0.425419,1001,0.0401255,1001,0.336034,1001,0.479428,1001,0.477125,1001,0.334462,
992,-0.0100071,992,0.300058,992,0.420446,992,0.045017,992,0.346371,992,0.478515,992,0.476991,992,0.345797,
983,-0.0093458,983,0.306969,983,0.414064,983,0.0498728,983,0.356886,983,0.477082,983,0.475638,983,0.35633,
974,-0.0118428,974,0.31134,974,0.404302,974,0.0533458,974,0.36621,974,0.47352,974,0.4711,974,0.364249,
965,-0.00670958,965,0.324214,965,0.401871,965,0.065378,965,0.384399,965,0.478054,965,0.473979,965,0.38057,
956,0.00185379,956,0.340977,956,0.402274,956,0.0788756,956,0.404813,956,0.485284,956,0.482522,956,0.403176,
947,-0.0113124,947,0.335854,947,0.379968,947,0.0737167,947,0.406699,947,0.471621,947,0.468765,947,0.40427,
938,0.000317711,938,0.357409,938,0.38272,938,0.0923842,938,0.433322,938,0.48303,938,0.480698,938,0.431991,
929,-0.00196908,929,0.365613,929,0.370835,929,0.100403,929,0.449535,929,0.481819,929,0.477329,929,0.445391,
920,-0.00753388,920,0.37083,920,0.35522,920,0.104395,920,0.462219,920,0.476967,920,0.472692,920,0.45791,
911,-0.00537634,911,0.38498,911,0.347071,911,0.116887,911,0.484026,911,0.480552,911,0.476041,911,0.47939,
902,-0.00180407,902,0.401745,902,0.340236,902,0.131672,902,0.50849,902,0.486324,902,0.481374,902,0.503582,
893,-0.000426185,893,0.416965,893,0.330875,893,0.144022,893,0.531006,893,0.490005,893,0.485937,893,0.527293,
884,-0.00812355,884,0.423334,884,0.31225,884,0.149167,884,0.546407,884,0.485524,884,0.481074,884,0.541763,
875,-0.00207018,875,0.44483,875,0.308095,875,0.167903,875,0.575623,875,0.495402,875,0.490407,875,0.570641,
866,-0.00415526,866,0.457793,866,0.296023,866,0.178372,866,0.596278,866,0.496878,866,0.490862,866,0.589724,
857,-0.00531952,857,0.471045,857,0.285696,857,0.187437,857,0.615336,857,0.497743,857,0.49145,857,0.608285,
848,-0.00481892,848,0.485253,848,0.278268,848,0.195019,848,0.632947,848,0.49782,848,0.491372,848,0.625464,
839,-0.00450627,839,0.497769,839,0.271797,839,0.19845,839,0.64625,839,0.494467,839,0.488183,839,0.638696,
830,-0.00503344,830,0.507602,830,0.265643,830,0.197637,830,0.654858,830,0.487731,830,0.4817,830,0.647317,
821,-0.00487293,821,0.516459,821,0.261327,821,0.195279,821,0.661335,821,0.480502,821,0.474764,821,0.653991,
812,-0.00489914,812,0.523929,812,0.257756,812,0.192207,812,0.666066,812,0.473321,812,0.467906,812,0.658865,
803,-0.0049425,803,0.530929,803,0.254756,803,0.189413,803,0.670858,803,0.467173,803,0.462143,803,0.663916,
794,-0.0030657,794,0.182928,794,0.714222,794,0.1529,794,0.318825,794,0.918097,794,0.921431,794,0.323731,
785,-0.00314718,785,0.181744,785,0.716402,785,0.151351,785,0.316494,785,0.918371,785,0.922264,785,0.321709,
776,-0.0032035,776,0.180456,776,0.72014,776,0.149942,776,0.314269,776,0.920306,776,0.924359,776,0.319332,
767,-0.00333777,767,0.178784,767,0.725115,767,0.14782,767,0.310939,767,0.923,767,0.926705,767,0.316139,
758,-0.00336654,758,0.176732,758,0.731392,758,0.144466,758,0.306181,758,0.925248,758,0.929111,758,0.311634,
749,-0.00314687,749,0.17463,749,0.739582,749,0.140057,749,0.300473,749,0.92731,749,0.931576,749,0.306151,
740,-0.00308647,740,0.171954,740,0.749703,740,0.134546,740,0.29319,740,0.930213,740,0.934469,740,0.299102,
731,-0.00333294,731,0.168068,731,0.762073,731,0.127891,731,0.284243,731,0.93393,731,0.93862,731,0.290364,
722,-0.00352576,722,0.163702,722,0.777885,722,0.121048,722,0.274434,722,0.940784,722,0.945896,722,0.28112,
713,-0.00350933,713,0.15894,713,0.798123,713,0.114524,713,0.264332,713,0.952281,713,0.957309,713,0.271397,
704,-0.00345771,704,0.153404,704,0.823383,704,0.108191,704,0.253472,704,0.969134,704,0.974203,704,0.26101,
695,-0.00343306,695,0.146872,695,0.854488,695,0.101987,695,0.242095,695,0.992024,695,0.997036,695,0.250009,
686,-0.00352587,686,0.139927,686,0.891961,686,0.0959594,686,0.230192,686,1.02172,686,1.02655,686,0.238488,
677,-0.00346449,677,0.133037,677,0.934382,677,0.0900168,677,0.218441,677,1.05633,677,1.06078,677,0.227143,
668,-0.00355051,668,0.127161,668,0.97621,668,0.0843005,668,0.207809,668,1.09053,668,1.09489,668,0.216949,
659,-0.00352653,659,0.123889,659,1.00572,659,0.0789633,659,0.199727,659,1.11312,659,1.11735,659,0.209469,
650,-0.00339659,650,0.124874,650,1.0058,650,0.0742629,650,0.1961,650,1.10669,650,1.11164,650,0.206477,
641,-0.00349069,641,0.131203,641,0.966682,641,0.0699871,641,0.19828,641,1.06152,641,1.06767,641,0.209184,
632,-0.00338,632,0.142058,632,0.906414,632,0.0666143,632,0.205143,632,0.995711,632,1.00303,632,0.216498,
623,-0.00339361,623,0.150479,623,0.864778,623,0.0630424,623,0.21001,623,0.948674,623,0.956599,623,0.221563,
614,-0.00348221,614,0.149243,614,0.87296,614,0.059108,614,0.205358,614,0.951916,614,0.959803,614,0.216876,
605,-0.00339977,605,0.142931,605,0.910404,605,0.0556748,605,0.196065,605,0.984894,605,0.992713,605,0.207713,
596,-0.00331845,596,0.149308,596,0.880048,596,0.0531958,596,0.199844,596,0.950745,596,0.959444,596,0.211853,
587,-0.00338662,587,0.175483,587,0.769006,587,0.0516192,587,0.223683,587,0.836267,587,0.846104,587,0.235912,
578,-0.00328814,578,0.207783,578,0.668078,578,0.0502646,578,0.253965,578,0.732276,578,0.742871,578,0.266314,
569,-0.0033744,569,0.234349,569,0.604216,569,0.0490652,569,0.278923,569,0.665884,569,0.676885,569,0.291679,
560,-0.00328855,560,0.242605,560,0.588264,560,0.0477864,560,0.285755,560,0.647884,560,0.658935,560,0.298801,
551,-0.00329626,551,0.247057,551,0.580587,551,0.0466206,551,0.289236,551,0.638812,551,0.649969,551,0.302451,
542,-0.00342335,542,0.244387,542,0.588118,542,0.0454795,542,0.285776,542,0.64508,542,0.656323,542,0.299032,
533,-0.00343722,533,0.239519,533,0.600447,533,0.0447643,533,0.280326,533,0.656698,533,0.668005,533,0.293938,
524,-0.00342823,524,0.236814,524,0.608982,524,0.0443243,524,0.277194,524,0.664747,524,0.676026,524,0.291128,
515,-0.00340907,515,0.234017,515,0.617131,515,0.0440326,515,0.274333,515,0.672703,515,0.684166,515,0.288557,
506,-0.0034308,506,0.231151,506,0.626196,506,0.0440159,506,0.271468,506,0.682,506,0.693349,506,0.286117,
497,-0.00336551,497,0.228116,497,0.636113,497,0.0443106,497,0.268719,497,0.692288,497,0.703766,497,0.283767,
488,-0.00338025,488,0.225141,488,0.646484,488,0.0446556,488,0.266014,488,0.703399,488,0.714814,488,0.281574,
479,-0.00335611,479,0.2219,479,0.657895,479,0.0450806,479,0.263221,479,0.715486,479,0.726969,479,0.279285,
470,-0.00336027,470,0.218077,470,0.671596,470,0.0452953,470,0.259728,470,0.729756,470,0.741291,470,0.2762,
461,-0.00328382,461,0.213905,461,0.68689,461,0.0454138,461,0.255731,461,0.745626,461,0.757207,461,0.272715,
452,-0.00332955,452,0.210954,452,0.699552,452,0.0451163,452,0.252532,452,0.758155,452,0.769807,452,0.270124,
443,-0.0033018,443,0.211173,443,0.702983,443,0.044743,443,0.252429,443,0.761092,443,0.772923,443,0.270717,
434,-0.00329168,434,0.215694,434,0.694009,434,0.0442049,434,0.256306,434,0.751385,434,0.763307,434,0.275375,
425,-0.00331814,425,0.224749,425,0.672543,425,0.043554,425,0.264532,425,0.72869,425,0.74071,425,0.284538,
416,-0.00324297,416,0.240763,416,0.635854,416,0.0429633,416,0.279783,416,0.690568,416,0.702696,416,0.300482,
407,-0.00308549,407,0.258513,407,0.600852,407,0.0422177,407,0.296669,407,0.654224,407,0.666431,407,0.318009,
398,-0.00302272,398,0.269159,398,0.584602,398,0.0416284,398,0.306797,398,0.636573,398,0.648816,398,0.328654,
389,-0.00298324,389,0.272314,389,0.583904,389,0.0409287,389,0.30936,389,0.634838,389,0.647049,389,0.331685,
380,-0.00296046,380,0.27182,380,0.58995,380,0.0401313,380,0.308042,380,0.639512,380,0.651624,380,0.330941,
371,-0.00267267,371,0.270693,371,0.595799,371,0.0395415,371,0.306284,371,0.644225,371,0.656449,371,0.329469,
362,-0.00248507,362,0.274686,362,0.592585,362,0.0388081,362,0.309302,362,0.639425,362,0.651369,362,0.333063,
353,-0.00234246,353,0.294925,353,0.559889,353,0.0378168,353,0.328587,353,0.604942,353,0.616968,353,0.352452,
344,-0.00224039,344,0.286608,344,0.548302,344,0.0342905,344,0.318152,344,0.589303,344,0.608673,344,0.346016,
335,-0.00158681,335,0.303614,335,0.533009,335,0.0341688,335,0.334316,335,0.572509,335,0.591582,335,0.362282,
326,-0.000980178,326,0.32106,326,0.53438,326,0.0344258,326,0.351751,326,0.572289,326,0.591987,326,0.380156,
317,-0.000341612,317,0.347586,317,0.531162,317,0.0352728,317,0.378152,317,0.568648,317,0.58904,317,0.407718,
308,0.00124527,308,0.395408,308,0.494098,308,0.0375284,308,0.426114,308,0.531241,308,0.554024,308,0.457093,
300,0.00375215,300,0.440942,300,0.463332,300,0.0413127,300,0.47204,300,0.501174,300,0.527129,300,0.505391,