File: DichroicRatioFromUVData-master 2/DataParse2/14-17.csv
PDMS,,PDMS-90,,PDMS-0,,K1S-spin,,K1S-spin-90,,K1S-spin-0,,K1S-ff-3mms,,K1S-ff-3mms-90,,K1S-ff-3mms-0,,K1S-lf-3mms,,K1S-lf-3mms-90,,K1S-lf-3mms-0,,K1S-lf-3mms-2,,K1S-lf-3mms-2-90,,K1S-lf-3mms-2-0,,
Wavelength (nm),Abs,Wavelength (nm),Abs,Wavelength (nm),Abs,Wavelength (nm),Abs,Wavelength (nm),Abs,Wavelength (nm),Abs,Wavelength (nm),Abs,Wavelength (nm),Abs,Wavelength (nm),Abs,Wavelength (nm),Abs,Wavelength (nm),Abs,Wavelength (nm),Abs,Wavelength (nm),Abs,Wavelength (nm),Abs,Wavelength (nm),Abs,
1100,0.525376,1100,1.22055,1100,0.761137,1100,0.470515,1100,1.13455,1100,0.781081,1100,0.816571,1100,1.47939,1100,1.00801,1100,0.548179,1100,1.17177,1100,0.793619,1100,0.681318,1100,1.32067,1100,0.899315,
1088,0.526333,1088,1.19877,1088,0.77442,1088,0.470664,1088,1.11292,1088,0.793489,1088,0.817312,1088,1.45756,1088,1.02169,1088,0.549287,1088,1.15071,1088,0.807084,1088,0.682431,1088,1.30078,1088,0.912852,
1076,0.526218,1076,1.18824,1076,0.779739,1076,0.470755,1076,1.1032,1076,0.799998,1076,0.817473,1076,1.4473,1076,1.02669,1076,0.550039,1076,1.14164,1076,0.813525,1076,0.683151,1076,1.29201,1076,0.9193,
1064,0.525447,1064,1.17828,1064,0.785095,1064,0.470153,1064,1.09303,1064,0.805492,1064,0.816696,1064,1.43739,1064,1.03217,1064,0.550223,1064,1.13247,1064,0.819712,1064,0.683279,1064,1.28306,1064,0.925247,
1052,0.525778,1052,1.16892,1052,0.791196,1052,0.47052,1052,1.08402,1052,0.812422,1052,0.817731,1052,1.42822,1052,1.03842,1052,0.551495,1052,1.12451,1052,0.827229,1052,0.684578,1052,1.27514,1052,0.932422,
1040,0.526089,1040,1.16006,1040,0.797762,1040,0.470998,1040,1.07539,1040,0.819452,1040,0.818655,1040,1.4203,1040,1.04513,1040,0.553359,1040,1.11753,1040,0.835199,1040,0.686249,1040,1.26785,1040,0.940337,
1028,0.528232,1028,1.15256,1028,0.805614,1028,0.473054,1028,1.06849,1028,0.828557,1028,0.821312,1028,1.41358,1028,1.05387,1028,0.556931,1028,1.11237,1028,0.84527,1028,0.689621,1028,1.26246,1028,0.950258,
1016,0.52907,1016,1.14448,1016,0.813615,1016,0.474582,1016,1.06082,1016,0.8373,1016,0.82343,1016,1.40681,1016,1.06213,1016,0.560419,1016,1.10709,1016,0.855435,1016,0.693174,1016,1.25711,1016,0.9602,
1004,0.528501,1004,1.13377,1004,0.820002,1004,0.473943,1004,1.05113,1004,0.844736,1004,0.824099,1004,1.39747,1004,1.06946,1004,0.562367,1004,1.10018,1004,0.8646,1004,0.694756,1004,1.24967,1004,0.969047,
992,0.528361,992,1.12396,992,0.827725,992,0.474304,992,1.04178,992,0.853612,992,0.825725,992,1.38966,992,1.07748,992,0.565847,992,1.09474,992,0.875892,992,0.698295,992,1.24413,992,0.979902,
980,0.52874,980,1.11316,980,0.836053,980,0.474659,980,1.03234,980,0.86346,980,0.828324,980,1.38178,980,1.08788,980,0.570703,980,1.08961,980,0.888844,980,0.702483,980,1.2386,980,0.992091,
968,0.528653,968,1.10253,968,0.846061,968,0.475816,968,1.02241,968,0.875171,968,0.832196,968,1.37503,968,1.09908,968,0.576977,968,1.08571,968,0.904233,968,0.708698,968,1.2347,968,1.00693,
956,0.530239,956,1.09098,956,0.857167,956,0.477377,956,1.01278,956,0.888679,956,0.83718,956,1.36793,956,1.11352,956,0.584919,956,1.08245,956,0.922056,956,0.715912,956,1.2311,956,1.02393,
944,0.529953,944,1.07786,944,0.869144,944,0.478733,944,1.00133,944,0.903381,944,0.842264,944,1.36006,944,1.12755,944,0.593054,944,1.07911,944,0.941736,944,0.724035,944,1.22725,944,1.04239,
932,0.53259,932,1.06499,932,0.883904,932,0.481015,932,0.990967,932,0.920731,932,0.850367,932,1.35399,932,1.1467,932,0.603988,932,1.07744,932,0.964819,932,0.734408,932,1.22575,932,1.06457,
920,0.534947,920,1.05192,920,0.900684,920,0.484646,920,0.981089,920,0.940975,920,0.860805,920,1.34864,920,1.1672,920,0.61632,920,1.07752,920,0.991006,920,0.746845,920,1.22557,920,1.08968,
908,0.544209,908,1.04252,908,0.924008,908,0.494109,908,0.977002,908,0.968859,908,0.87777,908,1.3488,908,1.1965,908,0.635724,908,1.08383,908,1.02535,908,0.766153,908,1.23158,908,1.12264,
896,0.541582,896,1.02192,896,0.938351,896,0.491836,896,0.960575,896,0.987011,896,0.884556,896,1.33814,896,1.21521,896,0.644144,896,1.07956,896,1.05019,896,0.774722,896,1.22705,896,1.14605,
884,0.544916,884,1.00468,884,0.958536,884,0.494747,884,0.949881,884,1.01211,884,0.896906,884,1.3326,884,1.242,884,0.658455,884,1.08117,884,1.0819,884,0.789453,884,1.22855,884,1.1762,
872,0.549047,872,0.989274,872,0.980895,872,0.499125,872,0.941213,872,1.03985,872,0.912235,872,1.32945,872,1.27045,872,0.673792,872,1.08497,872,1.11532,872,0.806278,872,1.23263,872,1.20827,
860,0.554841,860,0.974466,860,1.00364,860,0.504143,860,0.934537,860,1.068,860,0.926498,860,1.32576,860,1.29907,860,0.688074,860,1.0885,860,1.14707,860,0.822573,860,1.2365,860,1.23907,
848,0.560289,848,0.962662,848,1.02543,848,0.509444,848,0.929019,848,1.09422,848,0.93895,848,1.32066,848,1.32426,848,0.697883,848,1.08929,848,1.17369,848,0.835584,848,1.23733,848,1.26526,
836,0.564773,836,0.952452,836,1.04367,836,0.513701,836,0.92407,836,1.11553,836,0.944739,836,1.31244,836,1.34323,836,0.701683,836,1.08511,836,1.19286,836,0.841889,836,1.23233,836,1.2842,
824,0.567961,824,0.94586,824,1.05839,824,0.517111,824,0.919919,824,1.13143,824,0.947167,824,1.30334,824,1.35623,824,0.700769,824,1.07788,824,1.20473,824,0.842944,824,1.22427,824,1.29656,
812,0.57068,812,0.94082,812,1.07016,812,0.519871,812,0.916939,812,1.14347,812,0.946853,812,1.29484,812,1.36552,812,0.698642,812,1.07045,812,1.2131,812,0.841819,812,1.21577,812,1.30525,
800,0.574529,800,0.937607,800,1.0813,800,0.52433,800,0.915768,800,1.15525,800,0.948572,800,1.28817,800,1.37443,800,0.697985,800,1.06577,800,1.22173,800,0.842417,800,1.20954,800,1.31418,
788,0.664201,788,1.50547,788,0.822353,788,0.793702,788,1.62917,788,0.984882,788,0.974289,788,1.83183,788,1.10361,788,0.831954,788,1.69765,788,0.991505,788,0.917077,788,1.80413,788,1.06629,
776,0.663827,776,1.50964,776,0.819937,776,0.793072,776,1.63392,776,0.982616,776,0.971652,776,1.83436,776,1.09944,776,0.829486,776,1.70043,776,0.987565,776,0.914372,776,1.80606,776,1.06219,
764,0.663194,764,1.51711,764,0.816817,764,0.792022,764,1.63998,764,0.978969,764,0.968051,764,1.83785,764,1.09411,764,0.825834,764,1.70402,764,0.981821,764,0.911002,764,1.80949,764,1.05664,
752,0.662447,752,1.52715,752,0.812897,752,0.789592,752,1.64898,752,0.973481,752,0.962612,752,1.84248,752,1.08615,752,0.819789,752,1.70831,752,0.973402,752,0.90478,752,1.81215,752,1.04827,
740,0.66174,740,1.5421,740,0.808533,740,0.786539,740,1.66033,740,0.966085,740,0.956231,740,1.8493,740,1.0768,740,0.812082,740,1.71394,740,0.962487,740,0.897525,740,1.81691,740,1.03774,
728,0.660486,728,1.56049,728,0.801713,728,0.781638,728,1.67619,728,0.955097,728,0.948007,728,1.85939,728,1.06414,728,0.802102,728,1.72305,728,0.948316,728,0.887924,728,1.82414,728,1.02413,
716,0.659185,716,1.5878,716,0.794305,716,0.776806,716,1.69909,716,0.943238,716,0.939898,716,1.87797,716,1.05054,716,0.792527,716,1.73971,716,0.933222,716,0.878444,716,1.83938,716,1.00937,
704,0.6583,704,1.62507,704,0.785211,704,0.772009,704,1.73311,704,0.930039,704,0.931865,704,1.90682,704,1.0358,704,0.783152,704,1.76712,704,0.916819,704,0.869094,704,1.86539,704,0.993381,
692,0.657038,692,1.67602,692,0.775118,692,0.767313,692,1.77954,692,0.915305,692,0.924228,692,1.94967,692,1.01982,692,0.774012,692,1.80791,692,0.899359,692,0.860217,692,1.90539,692,0.976276,
680,0.656639,680,1.73986,680,0.764787,680,0.762517,680,1.83919,680,0.900101,680,0.916692,680,2.00521,680,1.00349,680,0.765444,680,1.86213,680,0.881792,680,0.851682,680,1.95826,680,0.959133,
668,0.657033,668,1.80626,668,0.756896,668,0.758413,668,1.90134,668,0.886687,668,0.910708,668,2.06404,668,0.989516,668,0.757745,668,1.91885,668,0.866377,668,0.844353,668,2.0142,668,0.943871,
656,0.659842,656,1.84099,656,0.75568,656,0.755568,656,1.93184,656,0.879284,656,0.906975,656,2.09071,656,0.982466,656,0.752567,656,1.94457,656,0.857403,656,0.839694,656,2.0391,656,0.935512,
644,0.663885,644,1.8005,644,0.764812,644,0.753969,644,1.88735,644,0.882028,644,0.905497,644,2.04199,644,0.985877,644,0.749287,644,1.89564,644,0.858926,644,0.837063,644,1.98967,644,0.937759,
632,0.665282,632,1.70536,632,0.780521,632,0.75097,632,1.78923,632,0.892728,632,0.901201,632,1.93944,632,0.995902,632,0.744649,632,1.79346,632,0.868229,632,0.832577,632,1.88674,632,0.94706,
620,0.661855,620,1.65538,620,0.786159,620,0.745306,620,1.73608,620,0.895959,620,0.892104,620,1.88199,620,0.995887,620,0.736172,620,1.7362,620,0.868746,620,0.823352,620,1.82817,620,0.946995,
608,0.659485,608,1.70031,608,0.775353,608,0.740318,608,1.77714,608,0.882384,608,0.883237,608,1.92018,608,0.9791,608,0.728317,608,1.77405,608,0.852963,608,0.815059,608,1.86514,608,0.930535,
596,0.66976,596,1.66919,596,0.789095,596,0.743584,596,1.7427,596,0.88816,596,0.888524,596,1.88247,596,0.988028,596,0.731808,596,1.73732,596,0.859229,596,0.819428,596,1.82785,596,0.938016,
584,0.671312,584,1.50189,584,0.829,584,0.741698,584,1.57286,584,0.923809,584,0.885195,584,1.70827,584,1.02236,584,0.729476,584,1.56508,584,0.894228,584,0.816777,584,1.65444,584,0.972489,
572,0.668736,572,1.3861,572,0.8669312,572,0.737039,572,1.45454,572,0.959362,572,0.877185,572,1.58626,572,1.055,572,0.723835,572,1.44496,572,0.928582,572,0.809835,572,1.5329,572,1.00554,
560,0.667512,560,1.35155,560,0.881797,560,0.733224,560,1.41705,560,0.971625,560,0.870487,560,1.54576,560,1.06439,560,0.719135,560,1.40611,560,0.940091,560,0.804115,560,1.49258,560,1.01584,
548,0.668181,548,1.34334,548,0.887739,548,0.73101,548,1.40582,548,0.974218,548,0.865976,548,1.53224,548,1.06549,548,0.716556,548,1.39409,548,0.942571,548,0.800234,548,1.47929,548,1.01701,
536,0.667543,536,1.36287,536,0.878731,536,0.727899,536,1.42263,536,0.962879,536,0.860177,536,1.54702,536,1.05181,536,0.713123,536,1.41076,536,0.931271,536,0.794989,536,1.49441,536,1.00393,
524,0.668925,524,1.37613,524,0.875621,524,0.726551,524,1.43301,524,0.956626,524,0.857557,524,1.5562,524,1.04511,524,0.712084,524,1.42145,524,0.925718,524,0.792658,524,1.50356,524,0.996961,
512,0.670304,512,1.38849,512,0.872637,512,0.725916,512,1.444,512,0.951792,512,0.856741,512,1.56692,512,1.04036,512,0.711976,512,1.43285,512,0.921362,512,0.791608,512,1.51371,512,0.991713,
500,0.671291,500,1.40263,500,0.869149,500,0.72748,500,1.45832,500,0.948974,500,0.859622,500,1.58277,500,1.03883,500,0.713834,500,1.44765,500,0.918822,500,0.793578,500,1.52891,500,0.989256,
,,,,,,,,,,,,,,,,,,,,,,,,,,,,,,
PDMS,,,,,,,,,,,,,,,,,,,,,,,,,,,,,,
PDMS,,,,,,,,,,,,,,,,,,,,,,,,,,,,,,
Collection Time: 7/1/2016 10:25:49 AM,,,,,,,,,,,,,,,,,,,,,,,,,,,,,,
Operator Name  :,,,,,,,,,,,,,,,,,,,,,,,,,,,,,,
Scan Version 6.0.0.1551,,,,,,,,,,,,,,,,,,,,,,,,,,,,,,
Parameter List :,,,,,,,,,,,,,,,,,,,,,,,,,,,,,,
Instrument  Cary 6000i,,,,,,,,,,,,,,,,,,,,,,,,,,,,,,
Instrument Version  2.23,,,,,,,,,,,,,,,,,,,,,,,,,,,,,,
Method Log     :,,,,,,,,,,,,,,,,,,,,,,,,,,,,,,
Method Name    :,,,,,,,,,,,,,,,,,,,,,,,,,,,,,,
Date/Time stamp: 7/1/2016 10:13:34 AM,,,,,,,,,,,,,,,,,,,,,,,,,,,,,,
Method Modifications:,,,,,,,,,,,,,,,,,,,,,,,,,,,,,,
X Start nm Changed: 7/1/2016 10:18:54 AM,Old:800.000,New:1100.000,,,,,,,,,,,,,,,,,,,,,,,,,,,,
X Stop nm Changed: 7/1/2016 10:18:54 AM,Old:200.000,New:500.000,,,,,,,,,,,,,,,,,,,,,,,,,,,,
UVVIS Scan Rate nm Changed: 7/1/2016 10:18:54 AM,Old:  602.007,New:  600.000,,,,,,,,,,,,,,,,,,,,,,,,,,,,
NIR Scan Rate nm Changed: 7/1/2016 10:18:54 AM,Old:  602.007,New:  600.000,,,,,,,,,,,,,,,,,,,,,,,,,,,,
UVVIS Interval EV Changed: 7/1/2016 10:18:54 AM,Old:0.00015,New:0.00015,,,,,,,,,,,,,,,,,,,,,,,,,,,,
NIR Interval EV Changed: 7/1/2016 10:18:54 AM,Old:0.00015,New:0.00015,,,,,,,,,,,,,,,,,,,,,,,,,,,,
Common Interval EV Changed: 7/1/2016 10:18:54 AM,Old:0.00015,New:0.00015,,,,,,,,,,,,,,,,,,,,,,,,,,,,
Baseline Correction Changed: 7/1/2016 10:18:54 AM,Old:0,New:1,,,,,,,,,,,,,,,,,,,,,,,,,,,,
Sipper Type Changed: 7/1/2016 10:18:54 AM, Old:Internal RSA, New:External sipper,,,,,,,,,,,,,,,,,,,,,,,,,,,,
Autoconvert Changed: 7/1/2016 10:22:00 AM, Old:None, New:Ascii,,,,,,,,,,,,,,,,,,,,,,,,,,,,
End Method Modifications,,,,,,,,,,,,,,,,,,,,,,,,,,,,,,
<Current Wavelength> ,500.000,,,,,,,,,,,,,,,,,,,,,,,,,,,,,
<SBW (nm)> ,2.00,,,,,,,,,,,,,,,,,,,,,,,,,,,,,
<Energy> ,3.47,,,,,,,,,,,,,,,,,,,,,,,,,,,,,
<Slit Height> , Full,,,,,,,,,,,,,,,,,,,,,,,,,,,,,
,,,,,,,,,,,,,,,,,,,,,,,,,,,,,,
PDMS-90,,,,,,,,,,,,,,,,,,,,,,,,,,,,,,
PDMS-90,,,,,,,,,,,,,,,,,,,,,,,,,,,,,,
Collection Time: 7/1/2016 10:27:48 AM,,,,,,,,,,,,,,,,,,,,,,,,,,,,,,
Operator Name  :,,,,,,,,,,,,,,,,,,,,,,,,,,,,,,
Scan Version 6.0.0.1551,,,,,,,,,,,,,,,,,,,,,,,,,,,,,,
Parameter List :,,,,,,,,,,,,,,,,,,,,,,,,,,,,,,
Instrument  Cary 6000i,,,,,,,,,,,,,,,,,,,,,,,,,,,,,,
Instrument Version  2.23,,,,,,,,,,,,,,,,,,,,,,,,,,,,,,
Method Log     :,,,,,,,,,,,,,,,,,,,,,,,,,,,,,,
Method Name    :,,,,,,,,,,,,,,,,,,,,,,,,,,,,,,
Date/Time stamp: 7/1/2016 10:13:34 AM,,,,,,,,,,,,,,,,,,,,,,,,,,,,,,
Method Modifications:,,,,,,,,,,,,,,,,,,,,,,,,,,,,,,
X Start nm Changed: 7/1/2016 10:18:54 AM,Old:800.000,New:1100.000,,,,,,,,,,,,,,,,,,,,,,,,,,,,
X Stop nm Changed: 7/1/2016 10:18:54 AM,Old:200.000,New:500.000,,,,,,,,,,,,,,,,,,,,,,,,,,,,
UVVIS Scan Rate nm Changed: 7/1/2016 10:18:54 AM,Old:  602.007,New:  600.000,,,,,,,,,,,,,,,,,,,,,,,,,,,,
NIR Scan Rate nm Changed: 7/1/2016 10:18:54 AM,Old:  602.007,New:  600.000,,,,,,,,,,,,,,,,,,,,,,,,,,,,
UVVIS Interval EV Changed: 7/1/2016 10:18:54 AM,Old:0.00015,New:0.00015,,,,,,,,,,,,,,,,,,,,,,,,,,,,
NIR Interval EV Changed: 7/1/2016 10:18:54 AM,Old:0.00015,New:0.00015,,,,,,,,,,,,,,,,,,,,,,,,,,,,
Common Interval EV Changed: 7/1/2016 10:18:54 AM,Old:0.00015,New:0.00015,,,,,,,,,,,,,,,,,,,,,,,,,,,,
Baseline Correction Changed: 7/1/2016 10:18:54 AM,Old:0,New:1,,,,,,,,,,,,,,,,,,,,,,,,,,,,
Sipper Type Changed: 7/1/2016 10:18:54 AM, Old:Internal RSA, New:External sipper,,,,,,,,,,,,,,,,,,,,,,,,,,,,
Autoconvert Changed: 7/1/2016 10:22:00 AM, Old:None, New:Ascii,,,,,,,,,,,,,,,,,,,,,,,,,,,,
End Method Modifications,,,,,,,,,,,,,,,,,,,,,,,,,,,,,,
<Current Wavelength> ,500.000,,,,,,,,,,,,,,,,,,,,,,,,,,,,,
<SBW (nm)> ,2.00,,,,,,,,,,,,,,,,,,,,,,,,,,,,,
<Energy> ,3.47,,,,,,,,,,,,,,,,,,,,,,,,,,,,,
<Slit Height> , Full,,,,,,,,,,,,,,,,,,,,,,,,,,,,,
,,,,,,,,,,,,,,,,,,,,,,,,,,,,,,
PDMS-0,,,,,,,,,,,,,,,,,,,,,,,,,,,,,,
PDMS-0,,,,,,,,,,,,,,,,,,,,,,,,,,,,,,
Collection Time: 7/1/2016 10:29:48 AM,,,,,,,,,,,,,,,,,,,,,,,,,,,,,,
Operator Name  :,,,,,,,,,,,,,,,,,,,,,,,,,,,,,,
Scan Version 6.0.0.1551,,,,,,,,,,,,,,,,,,,,,,,,,,,,,,
Parameter List :,,,,,,,,,,,,,,,,,,,,,,,,,,,,,,
Instrument  Cary 6000i,,,,,,,,,,,,,,,,,,,,,,,,,,,,,,
Instrument Version  2.23,,,,,,,,,,,,,,,,,,,,,,,,,,,,,,
Method Log     :,,,,,,,,,,,,,,,,,,,,,,,,,,,,,,
Method Name    :,,,,,,,,,,,,,,,,,,,,,,,,,,,,,,
Date/Time stamp: 7/1/2016 10:13:34 AM,,,,,,,,,,,,,,,,,,,,,,,,,,,,,,
Method Modifications:,,,,,,,,,,,,,,,,,,,,,,,,,,,,,,
X Start nm Changed: 7/1/2016 10:18:54 AM,Old:800.000,New:1100.000,,,,,,,,,,,,,,,,,,,,,,,,,,,,
X Stop nm Changed: 7/1/2016 10:18:54 AM,Old:200.000,New:500.000,,,,,,,,,,,,,,,,,,,,,,,,,,,,
UVVIS Scan Rate nm Changed: 7/1/2016 10:18:54 AM,Old:  602.007,New:  600.000,,,,,,,,,,,,,,,,,,,,,,,,,,,,
NIR Scan Rate nm Changed: 7/1/2016 10:18:54 AM,Old:  602.007,New:  600.000,,,,,,,,,,,,,,,,,,,,,,,,,,,,
UVVIS Interval EV Changed: 7/1/2016 10:18:54 AM,Old:0.00015,New:0.00015,,,,,,,,,,,,,,,,,,,,,,,,,,,,
NIR Interval EV Changed: 7/1/2016 10:18:54 AM,Old:0.00015,New:0.00015,,,,,,,,,,,,,,,,,,,,,,,,,,,,
Common Interval EV Changed: 7/1/2016 10:18:54 AM,Old:0.00015,New:0.00015,,,,,,,,,,,,,,,,,,,,,,,,,,,,
Baseline Correction Changed: 7/1/2016 10:18:54 AM,Old:0,New:1,,,,,,,,,,,,,,,,,,,,,,,,,,,,
Sipper Type Changed: 7/1/2016 10:18:54 AM, Old:Internal RSA, New:External sipper,,,,,,,,,,,,,,,,,,,,,,,,,,,,
Autoconvert Changed: 7/1/2016 10:22:00 AM, Old:None, New:Ascii,,,,,,,,,,,,,,,,,,,,,,,,,,,,
End Method Modifications,,,,,,,,,,,,,,,,,,,,,,,,,,,,,,
<Current Wavelength> ,500.000,,,,,,,,,,,,,,,,,,,,,,,,,,,,,
<SBW (nm)> ,2.00,,,,,,,,,,,,,,,,,,,,,,,,,,,,,
<Energy> ,3.47,,,,,,,,,,,,,,,,,,,,,,,,,,,,,
<Slit Height> , Full,,,,,,,,,,,,,,,,,,,,,,,,,,,,,
,,,,,,,,,,,,,,,,,,,,,,,,,,,,,,
K1S-spin,,,,,,,,,,,,,,,,,,,,,,,,,,,,,,
K1S-spin,,,,,,,,,,,,,,,,,,,,,,,,,,,,,,
Collection Time: 7/1/2016 10:35:22 AM,,,,,,,,,,,,,,,,,,,,,,,,,,,,,,
Operator Name  :,,,,,,,,,,,,,,,,,,,,,,,,,,,,,,
Scan Version 6.0.0.1551,,,,,,,,,,,,,,,,,,,,,,,,,,,,,,
Parameter List :,,,,,,,,,,,,,,,,,,,,,,,,,,,,,,
Instrument  Cary 6000i,,,,,,,,,,,,,,,,,,,,,,,,,,,,,,
Instrument Version  2.23,,,,,,,,,,,,,,,,,,,,,,,,,,,,,,
Method Log     :,,,,,,,,,,,,,,,,,,,,,,,,,,,,,,
Method Name    :,,,,,,,,,,,,,,,,,,,,,,,,,,,,,,
Date/Time stamp: 7/1/2016 10:13:34 AM,,,,,,,,,,,,,,,,,,,,,,,,,,,,,,
Method Modifications:,,,,,,,,,,,,,,,,,,,,,,,,,,,,,,
X Start nm Changed: 7/1/2016 10:18:54 AM,Old:800.000,New:1100.000,,,,,,,,,,,,,,,,,,,,,,,,,,,,
X Stop nm Changed: 7/1/2016 10:18:54 AM,Old:200.000,New:500.000,,,,,,,,,,,,,,,,,,,,,,,,,,,,
UVVIS Scan Rate nm Changed: 7/1/2016 10:18:54 AM,Old:  602.007,New:  600.000,,,,,,,,,,,,,,,,,,,,,,,,,,,,
NIR Scan Rate nm Changed: 7/1/2016 10:18:54 AM,Old:  602.007,New:  600.000,,,,,,,,,,,,,,,,,,,,,,,,,,,,
UVVIS Interval EV Changed: 7/1/2016 10:18:54 AM,Old:0.00015,New:0.00015,,,,,,,,,,,,,,,,,,,,,,,,,,,,
NIR Interval EV Changed: 7/1/2016 10:18:54 AM,Old:0.00015,New:0.00015,,,,,,,,,,,,,,,,,,,,,,,,,,,,
Common Interval EV Changed: 7/1/2016 10:18:54 AM,Old:0.00015,New:0.00015,,,,,,,,,,,,,,,,,,,,,,,,,,,,
Baseline Correction Changed: 7/1/2016 10:18:54 AM,Old:0,New:1,,,,,,,,,,,,,,,,,,,,,,,,,,,,
[...]
UVVIS Scan Rate nm Changed: 7/1/2016 10:18:54 AM,Old:  602.007,New:  600.000,,,,,,,,,,,,,,,,,,,,,,,,,,,,
NIR Scan Rate nm Changed: 7/1/2016 10:18:54 AM,Old:  602.007,New:  600.000,,,,,,,,,,,,,,,,,,,,,,,,,,,,
UVVIS Interval EV Changed: 7/1/2016 10:18:54 AM,Old:0.00015,New:0.00015,,,,,,,,,,,,,,,,,,,,,,,,,,,,
NIR Interval EV Changed: 7/1/2016 10:18:54 AM,Old:0.00015,New:0.00015,,,,,,,,,,,,,,,,,,,,,,,,,,,,
Common Interval EV Changed: 7/1/2016 10:18:54 AM,Old:0.00015,New:0.00015,,,,,,,,,,,,,,,,,,,,,,,,,,,,
Baseline Correction Changed: 7/1/2016 10:18:54 AM,Old:0,New:1,,,,,,,,,,,,,,,,,,,,,,,,,,,,
Sipper Type Changed: 7/1/2016 10:18:54 AM, Old:Internal RSA, New:External sipper,,,,,,,,,,,,,,,,,,,,,,,,,,,,
Autoconvert Changed: 7/1/2016 10:22:00 AM, Old:None, New:Ascii,,,,,,,,,,,,,,,,,,,,,,,,,,,,
End Method Modifications,,,,,,,,,,,,,,,,,,,,,,,,,,,,,,
<Current Wavelength> ,500.000,,,,,,,,,,,,,,,,,,,,,,,,,,,,,
<SBW (nm)> ,2.00,,,,,,,,,,,,,,,,,,,,,,,,,,,,,
<Energy> ,3.47,,,,,,,,,,,,,,,,,,,,,,,,,,,,,
<Slit Height> , Full,,,,,,,,,,,,,,,,,,,,,,,,,,,,,
,,,,,,,,,,,,,,,,,,,,,,,,,,,,,,
K1S-lf-3mms-2,,,,,,,,,,,,,,,,,,,,,,,,,,,,,,
K1S-lf-3mms-2,,,,,,,,,,,,,,,,,,,,,,,,,,,,,,
Collection Time: 7/1/2016 11:03:17 AM,,,,,,,,,,,,,,,,,,,,,,,,,,,,,,
Operator Name  :,,,,,,,,,,,,,,,,,,,,,,,,,,,,,,
Scan Version 6.0.0.1551,,,,,,,,,,,,,,,,,,,,,,,,,,,,,,
Parameter List :,,,,,,,,,,,,,,,,,,,,,,,,,,,,,,
Instrument  Cary 6000i,,,,,,,,,,,,,,,,,,,,,,,,,,,,,,
Instrument Version  2.23,,,,,,,,,,,,,,,,,,,,,,,,,,,,,,
Method Log     :,,,,,,,,,,,,,,,,,,,,,,,,,,,,,,
Method Name    :,,,,,,,,,,,,,,,,,,,,,,,,,,,,,,
Date/Time stamp: 7/1/2016 10:13:34 AM,,,,,,,,,,,,,,,,,,,,,,,,,,,,,,
Method Modifications:,,,,,,,,,,,,,,,,,,,,,,,,,,,,,,
X Start nm Changed: 7/1/2016 10:18:54 AM,Old:800.000,New:1100.000,,,,,,,,,,,,,,,,,,,,,,,,,,,,
X Stop nm Changed: 7/1/2016 10:18:54 AM,Old:200.000,New:500.000,,,,,,,,,,,,,,,,,,,,,,,,,,,,
UVVIS Scan Rate nm Changed: 7/1/2016 10:18:54 AM,Old:  602.007,New:  600.000,,,,,,,,,,,,,,,,,,,,,,,,,,,,
NIR Scan Rate nm Changed: 7/1/2016 10:18:54 AM,Old:  602.007,New:  600.000,,,,,,,,,,,,,,,,,,,,,,,,,,,,
UVVIS Interval EV Changed: 7/1/2016 10:18:54 AM,Old:0.00015,New:0.00015,,,,,,,,,,,,,,,,,,,,,,,,,,,,
NIR Interval EV Changed: 7/1/2016 10:18:54 AM,Old:0.00015,New:0.00015,,,,,,,,,,,,,,,,,,,,,,,,,,,,
Common Interval EV Changed: 7/1/2016 10:18:54 AM,Old:0.00015,New:0.00015,,,,,,,,,,,,,,,,,,,,,,,,,,,,
Baseline Correction Changed: 7/1/2016 10:18:54 AM,Old:0,New:1,,,,,,,,,,,,,,,,,,,,,,,,,,,,
Sipper Type Changed: 7/1/2016 10:18:54 AM, Old:Internal RSA, New:External sipper,,,,,,,,,,,,,,,,,,,,,,,,,,,,
Autoconvert Changed: 7/1/2016 10:22:00 AM, Old:None, New:Ascii,,,,,,,,,,,,,,,,,,,,,,,,,,,,
End Method Modifications,,,,,,,,,,,,,,,,,,,,,,,,,,,,,,
<Current Wavelength> ,500.000,,,,,,,,,,,,,,,,,,,,,,,,,,,,,
<SBW (nm)> ,2.00,,,,,,,,,,,,,,,,,,,,,,,,,,,,,
<Energy> ,3.47,,,,,,,,,,,,,,,,,,,,,,,,,,,,,
<Slit Height> , Full,,,,,,,,,,,,,,,,,,,,,,,,,,,,,
,,,,,,,,,,,,,,,,,,,,,,,,,,,,,,
K1S-lf-3mms-2-90,,,,,,,,,,,,,,,,,,,,,,,,,,,,,,
K1S-lf-3mms-2-90,,,,,,,,,,,,,,,,,,,,,,,,,,,,,,
Collection Time: 7/1/2016 11:05:24 AM,,,,,,,,,,,,,,,,,,,,,,,,,,,,,,
Operator Name  :,,,,,,,,,,,,,,,,,,,,,,,,,,,,,,
Scan Version 6.0.0.1551,,,,,,,,,,,,,,,,,,,,,,,,,,,,,,
Parameter List :,,,,,,,,,,,,,,,,,,,,,,,,,,,,,,
Instrument  Cary 6000i,,,,,,,,,,,,,,,,,,,,,,,,,,,,,,
Instrument Version  2.23,,,,,,,,,,,,,,,,,,,,,,,,,,,,,,
Method Log     :,,,,,,,,,,,,,,,,,,,,,,,,,,,,,,
Method Name    :,,,,,,,,,,,,,,,,,,,,,,,,,,,,,,
Date/Time stamp: 7/1/2016 10:13:34 AM,,,,,,,,,,,,,,,,,,,,,,,,,,,,,,
Method Modifications:,,,,,,,,,,,,,,,,,,,,,,,,,,,,,,
X Start nm Changed: 7/1/2016 10:18:54 AM,Old:800.000,New:1100.000,,,,,,,,,,,,,,,,,,,,,,,,,,,,
X Stop nm Changed: 7/1/2016 10:18:54 AM,Old:200.000,New:500.000,,,,,,,,,,,,,,,,,,,,,,,,,,,,
UVVIS Scan Rate nm Changed: 7/1/2016 10:18:54 AM,Old:  602.007,New:  600.000,,,,,,,,,,,,,,,,,,,,,,,,,,,,
NIR Scan Rate nm Changed: 7/1/2016 10:18:54 AM,Old:  602.007,New:  600.000,,,,,,,,,,,,,,,,,,,,,,,,,,,,
UVVIS Interval EV Changed: 7/1/2016 10:18:54 AM,Old:0.00015,New:0.00015,,,,,,,,,,,,,,,,,,,,,,,,,,,,
NIR Interval EV Changed: 7/1/2016 10:18:54 AM,Old:0.00015,New:0.00015,,,,,,,,,,,,,,,,,,,,,,,,,,,,
Common Interval EV Changed: 7/1/2016 10:18:54 AM,Old:0.00015,New:0.00015,,,,,,,,,,,,,,,,,,,,,,,,,,,,
Baseline Correction Changed: 7/1/2016 10:18:54 AM,Old:0,New:1,,,,,,,,,,,,,,,,,,,,,,,,,,,,
Sipper Type Changed: 7/1/2016 10:18:54 AM, Old:Internal RSA, New:External sipper,,,,,,,,,,,,,,,,,,,,,,,,,,,,
Autoconvert Changed: 7/1/2016 10:22:00 AM, Old:None, New:Ascii,,,,,,,,,,,,,,,,,,,,,,,,,,,,
End Method Modifications,,,,,,,,,,,,,,,,,,,,,,,,,,,,,,
<Current Wavelength> ,500.000,,,,,,,,,,,,,,,,,,,,,,,,,,,,,
<SBW (nm)> ,2.00,,,,,,,,,,,,,,,,,,,,,,,,,,,,,
<Energy> ,3.47,,,,,,,,,,,,,,,,,,,,,,,,,,,,,
<Slit Height> , Full,,,,,,,,,,,,,,,,,,,,,,,,,,,,,
,,,,,,,,,,,,,,,,,,,,,,,,,,,,,,
K1S-lf-3mms-2-0,,,,,,,,,,,,,,,,,,,,,,,,,,,,,,
K1S-lf-3mms-2-0,,,,,,,,,,,,,,,,,,,,,,,,,,,,,,
Collection Time: 7/1/2016 11:07:34 AM,,,,,,,,,,,,,,,,,,,,,,,,,,,,,,
Operator Name  :,,,,,,,,,,,,,,,,,,,,,,,,,,,,,,
Scan Version 6.0.0.1551,,,,,,,,,,,,,,,,,,,,,,,,,,,,,,
Parameter List :,,,,,,,,,,,,,,,,,,,,,,,,,,,,,,
Instrument  Cary 6000i,,,,,,,,,,,,,,,,,,,,,,,,,,,,,,
Instrument Version  2.23,,,,,,,,,,,,,,,,,,,,,,,,,,,,,,
Method Log     :,,,,,,,,,,,,,,,,,,,,,,,,,,,,,,
Method Name    :,,,,,,,,,,,,,,,,,,,,,,,,,,,,,,
Date/Time stamp: 7/1/2016 10:13:34 AM,,,,,,,,,,,,,,,,,,,,,,,,,,,,,,
Method Modifications:,,,,,,,,,,,,,,,,,,,,,,,,,,,,,,
X Start nm Changed: 7/1/2016 10:18:54 AM,Old:800.000,New:1100.000,,,,,,,,,,,,,,,,,,,,,,,,,,,,
X Stop nm Changed: 7/1/2016 10:18:54 AM,Old:200.000,New:500.000,,,,,,,,,,,,,,,,,,,,,,,,,,,,
UVVIS Scan Rate nm Changed: 7/1/2016 10:18:54 AM,Old:  602.007,New:  600.000,,,,,,,,,,,,,,,,,,,,,,,,,,,,
NIR Scan Rate nm Changed: 7/1/2016 10:18:54 AM,Old:  602.007,New:  600.000,,,,,,,,,,,,,,,,,,,,,,,,,,,,
UVVIS Interval EV Changed: 7/1/2016 10:18:54 AM,Old:0.00015,New:0.00015,,,,,,,,,,,,,,,,,,,,,,,,,,,,
NIR Interval EV Changed: 7/1/2016 10:18:54 AM,Old:0.00015,New:0.00015,,,,,,,,,,,,,,,,,,,,,,,,,,,,
Common Interval EV Changed: 7/1/2016 10:18:54 AM,Old:0.00015,New:0.00015,,,,,,,,,,,,,,,,,,,,,,,,,,,,
Baseline Correction Changed: 7/1/2016 10:18:54 AM,Old:0,New:1,,,,,,,,,,,,,,,,,,,,,,,,,,,,
Sipper Type Changed: 7/1/2016 10:18:54 AM, Old:Internal RSA, New:External sipper,,,,,,,,,,,,,,,,,,,,,,,,,,,,
Autoconvert Changed: 7/1/2016 10:22:00 AM, Old:None, New:Ascii,,,,,,,,,,,,,,,,,,,,,,,,,,,,
End Method Modifications,,,,,,,,,,,,,,,,,,,,,,,,,,,,,,
<Current Wavelength> ,500.000,,,,,,,,,,,,,,,,,,,,,,,,,,,,,
<SBW (nm)> ,2.00,,,,,,,,,,,,,,,,,,,,,,,,,,,,,
<Energy> ,3.47,,,,,,,,,,,,,,,,,,,,,,,,,,,,,
<Slit Height> , Full,,,,,,,,,,,,,,,,,,,,,,,,,,,,,
,,,,,,,,,,,,,,,,,,,,,,,,,,,,,,
K1S-pf-3mms,,,,,,,,,,,,,,,,,,,,,,,,,,,,,,
K1S-pf-3mms,,,,,,,,,,,,,,,,,,,,,,,,,,,,,,
Collection Time: 7/1/2016 11:13:44 AM,,,,,,,,,,,,,,,,,,,,,,,,,,,,,,
Operator Name  :,,,,,,,,,,,,,,,,,,,,,,,,,,,,,,
Scan Version 6.0.0.1551,,,,,,,,,,,,,,,,,,,,,,,,,,,,,,
Parameter List :,,,,,,,,,,,,,,,,,,,,,,,,,,,,,,
Instrument  Cary 6000i,,,,,,,,,,,,,,,,,,,,,,,,,,,,,,
Instrument Version  2.23,,,,,,,,,,,,,,,,,,,,,,,,,,,,,,
Method Log     :,,,,,,,,,,,,,,,,,,,,,,,,,,,,,,
Method Name    :,,,,,,,,,,,,,,,,,,,,,,,,,,,,,,
Date/Time stamp: 7/1/2016 10:13:34 AM,,,,,,,,,,,,,,,,,,,,,,,,,,,,,,
Method Modifications:,,,,,,,,,,,,,,,,,,,,,,,,,,,,,,
X Start nm Changed: 7/1/2016 10:18:54 AM,Old:800.000,New:1100.000,,,,,,,,,,,,,,,,,,,,,,,,,,,,
X Stop nm Changed: 7/1/2016 10:18:54 AM,Old:200.000,New:500.000,,,,,,,,,,,,,,,,,,,,,,,,,,,,
UVVIS Scan Rate nm Changed: 7/1/2016 10:18:54 AM,Old:  602.007,New:  600.000,,,,,,,,,,,,,,,,,,,,,,,,,,,,
NIR Scan Rate nm Changed: 7/1/2016 10:18:54 AM,Old:  602.007,New:  600.000,,,,,,,,,,,,,,,,,,,,,,,,,,,,
UVVIS Interval EV Changed: 7/1/2016 10:18:54 AM,Old:0.00015,New:0.00015,,,,,,,,,,,,,,,,,,,,,,,,,,,,
NIR Interval EV Changed: 7/1/2016 10:18:54 AM,Old:0.00015,New:0.00015,,,,,,,,,,,,,,,,,,,,,,,,,,,,
Common Interval EV Changed: 7/1/2016 10:18:54 AM,Old:0.00015,New:0.00015,,,,,,,,,,,,,,,,,,,,,,,,,,,,
Baseline Correction Changed: 7/1/2016 10:18:54 AM,Old:0,New:1,,,,,,,,,,,,,,,,,,,,,,,,,,,,
Sipper Type Changed: 7/1/2016 10:18:54 AM, Old:Internal RSA, New:External sipper,,,,,,,,,,,,,,,,,,,,,,,,,,,,
Autoconvert Changed: 7/1/2016 10:22:00 AM, Old:None, New:Ascii,,,,,,,,,,,,,,,,,,,,,,,,,,,,
End Method Modifications,,,,,,,,,,,,,,,,,,,,,,,,,,,,,,
<Current Wavelength> ,500.000,,,,,,,,,,,,,,,,,,,,,,,,,,,,,
<SBW (nm)> ,2.00,,,,,,,,,,,,,,,,,,,,,,,,,,,,,
<Energy> ,3.47,,,,,,,,,,,,,,,,,,,,,,,,,,,,,
<Slit Height> , Full,,,,,,,,,,,,,,,,,,,,,,,,,,,,,